
Row          Column       Scattering   Scattering   Direct       Direct
Number       Number       Number       Energy(MeV)  Number       Energy(MeV)
100          0            96           3.658        513          26.43        
100          1            371          16.7         1944         105.7        
100          2            343          15.28        1856         100.5        
100          3            358          15.3         1864         102.2        
100          4            357          16.08        1902         102.4        
100          5            181          8.265        900          49.79        
100          6            180          8.016        956          51.98        
100          7            158          6.902        893          48.03        
100          8            194          8.249        940          50.96        
100          9            190          8.315        916          50.57        
100          10           197          9.09         831          44.78        
100          11           169          7.588        875          48.22        
100          12           183          8.582        886          48.24        
100          13           198          8.375        851          45.2         
100          14           186          7.538        856          47.93        
100          15           182          8.672        866          47.04        
100          16           201          8.483        870          47.96        
100          17           186          8.588        870          46.96        
100          18           213          9.935        860          47.39        
100          19           178          7.984        906          49.86        
100          20           163          7.259        867          45.89        
100          21           366          16.71        1908         105.4        
100          22           361          16.41        1983         107.4        
100          23           346          15.84        1874         100          
100          24           380          17.03        1951         103.9        
100          25           104          4.402        508          24.34        
200          0            114          4.784        606          30.24        
200          1            393          19.02        2067         114.2        
200          2            377          17.67        2016         112.1        
200          3            432          20.14        2071         116.6        
200          4            442          21.23        2077         115.3        
200          5            186          9.039        978          55.1         
200          6            202          10.06        1030         56.59        
200          7            189          8.825        999          56.08        
200          8            210          10           1049         59.5         
200          9            218          10.15        998          56.13        
200          10           231          11.57        1005         57.39        
200          11           203          8.76         983          53.11        
200          12           217          10.66        936          52.14        
200          13           212          9.943        961          54.5         
200          14           205          9.425        996          55.5         
200          15           213          9.801        1018         57.05        
200          16           220          11.26        1011         55.78        
200          17           210          9.704        999          55.64        
200          18           235          11.51        994          56.07        
200          19           205          10.04        961          54.33        
200          20           192          8.716        1064         60.02        
200          21           389          18.35        2108         118.9        
200          22           369          17.45        2096         117          
200          23           387          17.86        2045         114.8        
200          24           405          19.68        2071         116.1        
200          25           123          5.15         535          26.74        
300          0            132          6.238        614          32.08        
300          1            427          20.07        2169         120.7        
300          2            427          20.67        2064         113.6        
300          3            400          19.27        2104         118.1        
300          4            390          18.93        2066         116.8        
300          5            183          8.944        1011         56.44        
300          6            205          9.553        1037         59.34        
300          7            196          9.096        1020         57.15        
300          8            199          9.233        978          55.21        
300          9            191          9.889        1032         57.93        
300          10           171          8.472        1025         57.79        
300          11           201          9.91         960          54.1         
300          12           216          10.02        952          53.82        
300          13           186          8.475        919          50.28        
300          14           199          9.12         955          54.18        
300          15           204          10.05        1017         57.57        
300          16           190          9.059        949          52.39        
300          17           208          10.31        957          53.26        
300          18           202          9.629        1028         58.19        
300          19           207          10.32        990          55.56        
300          20           229          11.23        1077         58.52        
300          21           412          19.86        2111         119.7        
300          22           417          19.4         2041         111.9        
300          23           407          19.31        2096         114.2        
300          24           429          20.59        2096         116.7        
300          25           123          5.437        565          27.93        
400          0            128          5.145        596          31.76        
400          1            427          19.97        2044         114          
400          2            416          20.34        2083         118.8        
400          3            409          18.65        2154         119.3        
400          4            350          17.47        2031         113.1        
400          5            203          9.777        1044         59.08        
400          6            211          10.34        1027         56.66        
400          7            224          10.71        980          55.27        
400          8            229          11.11        990          56.93        
400          9            203          9.747        1004         55.66        
400          10           199          8.968        975          56.06        
400          11           221          10.57        988          56.24        
400          12           191          9.002        1031         58.8         
400          13           202          10.49        967          54.45        
400          14           214          10.11        993          55.58        
400          15           225          10.79        962          55.2         
400          16           214          9.925        990          56.65        
400          17           214          10.14        974          54.15        
400          18           227          11.28        968          54.62        
400          19           204          10.35        1008         55.7         
400          20           209          10.03        981          53.84        
400          21           423          20.43        2070         115.8        
400          22           425          20.82        1995         110.5        
400          23           390          18.76        2111         118.6        
400          24           400          18.41        2054         113.2        
400          25           133          6.221        603          30.62        
500          0            108          4.89         583          29.64        
500          1            410          20.39        2008         110.4        
500          2            404          18.65        2041         114          
500          3            399          18.7         2103         119.4        
500          4            433          20.7         2021         115.3        
500          5            229          11.45        1068         57.39        
500          6            183          8.931        944          52.04        
500          7            188          8.913        970          54.99        
500          8            180          8.188        1051         58.39        
500          9            182          8.656        1013         58.95        
500          10           194          9.412        972          54.74        
500          11           191          9.601        943          52.66        
500          12           206          9.936        1028         58.05        
500          13           234          10.47        925          52.02        
500          14           217          10.22        992          54.05        
500          15           235          11.21        925          52.37        
500          16           206          9.644        997          56.2         
500          17           217          10.88        997          54.72        
500          18           201          9.792        982          54.96        
500          19           189          9.2          996          54.95        
500          20           202          9.951        1043         57.76        
500          21           402          19.66        2065         117.2        
500          22           415          19.9         2080         117.1        
500          23           366          17.91        2035         115.2        
500          24           397          19.12        1941         109.3        
500          25           111          4.593        528          27.35        
600          0            113          4.4          533          26.18        
600          1            391          18.88        2047         115.5        
600          2            394          18.47        2078         116.5        
600          3            385          17.83        2115         118.8        
600          4            394          19.12        2053         116.5        
600          5            202          9.539        995          55.74        
600          6            193          9.489        982          54.57        
600          7            199          9.867        975          55.5         
600          8            204          9.136        956          54.02        
600          9            197          10.05        935          54.03        
600          10           199          9.89         928          51.71        
600          11           206          9.988        937          53.57        
600          12           224          10.6         996          56.33        
600          13           202          9.662        1042         57.65        
600          14           229          10.35        964          55.82        
600          15           218          10.35        990          55.15        
600          16           202          8.996        943          53.35        
600          17           234          11.15        1012         57.67        
600          18           228          10.48        948          54.2         
600          19           207          10.03        1013         57.09        
600          20           206          10.31        954          53.64        
600          21           426          20.49        2056         116.6        
600          22           428          21.04        2063         117.4        
600          23           398          18.16        2095         115.2        
600          24           396          18.73        2064         115.2        
600          25           112          4.345        523          27.62        
700          0            112          4.984        582          30.17        
700          1            399          19.49        2136         119.3        
700          2            427          19.98        1967         110.4        
700          3            441          21.19        2015         114.2        
700          4            416          19.91        1975         111.8        
700          5            209          9.54         992          55.04        
700          6            228          10.93        932          51.93        
700          7            213          9.98         972          55.17        
700          8            254          12.71        987          57.15        
700          9            198          9.894        976          55.69        
700          10           199          9.241        950          54.29        
700          11           230          11.02        1029         56.85        
700          12           174          7.962        971          55.26        
700          13           207          9.735        989          55.94        
700          14           213          10.17        975          56.03        
700          15           212          9.339        993          53.85        
700          16           206          9.511        982          56.1         
700          17           216          9.943        981          55.38        
700          18           216          10.1         956          55.52        
700          19           196          8.868        948          54.45        
700          20           206          9.745        973          53.35        
700          21           394          18.78        2036         115.3        
700          22           430          20.13        2032         115          
700          23           396          19.66        2035         114.3        
700          24           405          19.05        1993         112.7        
700          25           115          5.207        570          29.4         
800          0            107          4.476        552          28.73        
800          1            399          19.26        1992         110.4        
800          2            402          19.45        1992         113.6        
800          3            424          20.52        2006         114.4        
800          4            454          21.62        2064         116.2        
800          5            211          9.355        1003         54.9         
800          6            207          9.303        968          54.24        
800          7            236          11.72        967          55.04        
800          8            219          10.42        977          55.01        
800          9            215          10.07        980          54.17        
800          10           214          9.731        999          54.14        
800          11           209          10.03        953          55.05        
800          12           187          9.574        976          55.06        
800          13           215          10.04        984          56.09        
800          14           225          10.41        960          55.29        
800          15           197          9.665        984          55.6         
800          16           206          10.32        1038         58.11        
800          17           208          9.41         966          56.19        
800          18           204          9.088        977          55.09        
800          19           221          10.5         982          55.26        
800          20           203          9.47         934          52.5         
800          21           455          21.76        1996         111.8        
800          22           442          21.02        1965         110.3        
800          23           402          18.46        2048         117.7        
800          24           384          17.87        2062         115.2        
800          25           132          5.643        538          27.87        
900          0            124          5.397        559          29.5         
900          1            420          20.09        1992         111.3        
900          2            415          19.91        2008         113.1        
900          3            395          19.28        1981         112          
900          4            438          20.81        1980         111.3        
900          5            183          8.934        978          55.02        
900          6            210          9.606        965          54.46        
900          7            237          11.7         981          55.88        
900          8            205          9.757        1030         59.45        
900          9            228          10.85        950          54.61        
900          10           202          9.771        966          55.29        
900          11           195          9.08         927          52.11        
900          12           239          11.62        893          51.59        
900          13           182          8.541        958          54.16        
900          14           231          11.56        975          53.9         
900          15           204          9.843        989          56.35        
900          16           210          9.953        975          55.38        
900          17           186          8.925        936          54.18        
900          18           187          8.974        958          52.38        
900          19           236          11.45        1007         56.64        
900          20           206          9.387        965          53.52        
900          21           414          20.08        1956         109.6        
900          22           433          21.58        2017         114.2        
900          23           394          17.96        2153         122.2        
900          24           368          18.25        2007         112.8        
900          25           123          5.278        539          28.22        
1000         0            123          5.106        569          29.55        
1000         1            397          18.39        2037         115.6        
1000         2            379          18.08        2024         115.2        
1000         3            434          20.38        1961         110.3        
1000         4            394          18.36        2006         111.8        
1000         5            230          10.81        954          53.97        
1000         6            237          11.07        945          53.16        
1000         7            219          10.74        947          52.76        
1000         8            202          9.376        971          53.9         
1000         9            233          11.49        978          55.12        
1000         10           205          9.446        946          52.68        
1000         11           206          9.917        974          56.02        
1000         12           219          10.19        919          52.23        
1000         13           194          9.339        967          53.82        
1000         14           174          8.209        935          52.36        
1000         15           184          8.833        935          55.1         
1000         16           218          10.5         995          56.83        
1000         17           198          8.826        945          54.26        
1000         18           214          10.09        1004         55.65        
1000         19           193          9.02         1026         57.68        
1000         20           229          10.7         987          56.58        
1000         21           401          19.42        2073         119.3        
1000         22           406          19.81        1991         112.4        
1000         23           408          19.62        2007         112.7        
1000         24           434          20.67        2049         112.6        
1000         25           129          5.237        578          30           
1100         0            122          5.247        613          32.09        
1100         1            416          19.32        1979         113.3        
1100         2            388          18.2         2039         116.2        
1100         3            450          21.93        2035         118.3        
1100         4            417          19.79        2008         114.4        
1100         5            177          8.484        979          55.28        
1100         6            202          10.09        980          54.47        
1100         7            206          9.864        934          53.08        
1100         8            208          9.415        943          55           
1100         9            230          11.19        957          53.74        
1100         10           186          7.896        972          54.98        
1100         11           213          9.399        917          51.89        
1100         12           195          9.618        950          54.06        
1100         13           206          9.894        945          53.96        
1100         14           202          10.02        908          52.38        
1100         15           194          9.137        964          55.23        
1100         16           221          10.08        922          52.59        
1100         17           225          10.85        977          55.07        
1100         18           198          9.338        972          54.91        
1100         19           214          10.42        980          55.62        
1100         20           194          10.22        933          52.41        
1100         21           378          18.22        1955         111.5        
1100         22           418          19.77        1998         112.3        
1100         23           410          20.81        1977         111.4        
1100         24           413          19.43        2080         118.3        
1100         25           118          5.326        554          28.15        
1200         0            105          4.034        594          31.33        
1200         1            406          19.08        2011         113.5        
1200         2            391          18.84        2004         113.4        
1200         3            409          20.68        2042         115          
1200         4            394          19.21        2076         119.3        
1200         5            200          9.404        915          52.57        
1200         6            226          10.84        1019         58.05        
1200         7            221          10.71        949          53.94        
1200         8            225          10.52        968          54.77        
1200         9            207          9.887        971          54.87        
1200         10           215          9.739        981          56.22        
1200         11           209          10.09        914          52.75        
1200         12           187          8.409        958          56.66        
1200         13           238          10.77        968          56.28        
1200         14           202          9.029        936          53.83        
1200         15           215          10.19        1000         58.51        
1200         16           222          10.96        989          55.66        
1200         17           178          9.049        961          54.63        
1200         18           207          9.929        955          53.79        
1200         19           226          11.25        1025         58.4         
1200         20           211          10.16        950          54.91        
1200         21           407          19.68        1989         112.1        
1200         22           413          20.12        2026         114.2        
1200         23           411          20.37        2025         112.8        
1200         24           389          18.86        2046         116.2        
1200         25           120          4.753        571          30.64        
1300         0            120          5.543        541          28.23        
1300         1            372          17.46        1928         110.5        
1300         2            441          21.16        1983         113.6        
1300         3            438          20.86        1983         113          
1300         4            339          16.05        1978         111.4        
1300         5            201          9.487        946          54.57        
1300         6            211          9.864        959          55.06        
1300         7            214          9.912        944          53.68        
1300         8            194          8.912        980          55.33        
1300         9            214          9.738        905          51.45        
1300         10           196          8.973        898          50.31        
1300         11           201          9.218        863          49.66        
1300         12           194          9.24         914          53.56        
1300         13           238          11.24        933          52.4         
1300         14           190          9.263        978          56.67        
1300         15           190          8.799        981          55.36        
1300         16           198          10.19        937          51.95        
1300         17           206          10.45        934          53.16        
1300         18           191          8.666        948          54.47        
1300         19           221          10.52        982          55.52        
1300         20           200          9.124        920          51.48        
1300         21           432          21.07        2016         115.3        
1300         22           413          19.62        2046         113.8        
1300         23           439          20.01        2078         117.9        
1300         24           403          20.12        2017         115          
1300         25           112          4.702        608          31.95        
1400         0            116          4.99         620          32.3         
1400         1            419          20.53        1947         109.5        
1400         2            392          18.78        2014         115.4        
1400         3            434          21.18        2074         120          
1400         4            389          18.31        2015         114.5        
1400         5            194          9.899        1008         58.02        
1400         6            175          8.449        1011         57.88        
1400         7            185          8.764        955          55.13        
1400         8            198          9.26         914          52.56        
1400         9            213          10.05        969          54.77        
1400         10           197          9.144        958          54.25        
1400         11           210          9.46         933          52.39        
1400         12           191          9.102        958          54.34        
1400         13           226          11.11        953          54.18        
1400         14           213          10.55        961          54.92        
1400         15           209          10.12        931          52.79        
1400         16           229          11.36        919          51.93        
1400         17           223          10.53        974          55.48        
1400         18           198          8.989        938          52.17        
1400         19           194          9.028        967          55.05        
1400         20           197          9.713        986          56.07        
1400         21           425          20.6         2017         117.3        
1400         22           385          18.63        2130         120          
1400         23           453          21.83        2024         116.2        
1400         24           397          19.78        2027         115.9        
1400         25           129          5.267        559          30.37        
1500         0            123          5.418        591          31.39        
1500         1            397          18.41        2052         113.7        
1500         2            459          21.38        1994         112.5        
1500         3            410          19.08        2068         116.8        
1500         4            442          21.21        2038         116.7        
1500         5            190          8.946        962          54.41        
1500         6            208          9.033        963          55.15        
1500         7            216          10.13        962          55.45        
1500         8            199          8.856        960          54.07        
1500         9            196          9.307        991          55.43        
1500         10           207          10.22        972          54.81        
1500         11           208          9.775        1000         56.72        
1500         12           201          9.149        973          53.91        
1500         13           203          10.24        936          53.26        
1500         14           228          10.73        999          56.75        
1500         15           209          10.3         921          52.92        
1500         16           210          10.06        1025         58.93        
1500         17           208          9.185        990          55.76        
1500         18           236          10.86        1006         55.82        
1500         19           207          9.735        974          54.2         
1500         20           225          11.5         992          56.01        
1500         21           451          22.11        2035         115.3        
1500         22           444          21.56        1983         115.9        
1500         23           389          19.05        2015         112.7        
1500         24           393          18.14        1964         109.8        
1500         25           142          6.307        578          29.83        
1600         0            106          4.794        562          29.52        
1600         1            413          19.44        2052         117.1        
1600         2            399          19.18        2014         113.5        
1600         3            405          19.5         2013         113.7        
1600         4            430          20.35        1971         112.2        
1600         5            195          9.673        960          53.99        
1600         6            215          9.89         944          53.51        
1600         7            216          9.64         957          54.05        
1600         8            212          9.816        946          54.76        
1600         9            229          11.06        918          51.68        
1600         10           204          9.673        971          55.37        
1600         11           207          9.756        966          55.16        
1600         12           201          9.514        1002         57.28        
1600         13           218          10.36        976          55.49        
1600         14           208          9.513        1020         58.19        
1600         15           221          10.42        946          53.85        
1600         16           190          9.332        1000         55.76        
1600         17           197          9.678        1009         56.05        
1600         18           193          8.779        944          52.58        
1600         19           207          9.631        921          50.69        
1600         20           192          9.015        997          57.3         
1600         21           405          19.56        1913         108.3        
1600         22           432          20.83        2019         112.9        
1600         23           433          20.39        2088         119.5        
1600         24           391          18.71        2071         116.9        
1600         25           112          4.619        566          28.76        
1700         0            135          6.006        551          28.21        
1700         1            408          19.29        2048         115.8        
1700         2            383          18.49        2001         113.4        
1700         3            400          18.98        2091         118          
1700         4            432          19.75        2042         115.4        
1700         5            200          9.558        971          54.64        
1700         6            202          9.748        970          54.01        
1700         7            197          8.813        965          53.86        
1700         8            198          9.297        998          57.39        
1700         9            204          9.568        989          55.12        
1700         10           210          9.941        938          53.29        
1700         11           200          9.912        1000         54.91        
1700         12           178          8.307        943          52.85        
1700         13           198          9.683        954          54.33        
1700         14           248          12.09        965          55.23        
1700         15           218          9.499        950          54.31        
1700         16           257          12.66        994          58           
1700         17           233          10.84        997          56.36        
1700         18           229          11.07        949          52.05        
1700         19           219          10.15        1012         56.39        
1700         20           221          10.19        1003         57.36        
1700         21           391          19.14        2153         124.5        
1700         22           403          19.01        2003         113.9        
1700         23           373          17.31        2043         114.3        
1700         24           385          18.11        2002         112.3        
1700         25           103          4.372        584          30.12        
1800         0            116          4.658        603          30.45        
1800         1            417          19.78        2075         114.8        
1800         2            413          20.37        2084         116.2        
1800         3            411          18.99        2030         112.1        
1800         4            431          20.35        2028         112.4        
1800         5            182          8.991        961          54.85        
1800         6            232          10.42        990          54.56        
1800         7            213          10.25        950          52.93        
1800         8            226          10.85        1010         57.63        
1800         9            189          8.988        1025         57.81        
1800         10           218          9.867        966          57.4         
1800         11           207          9.86         910          52.17        
1800         12           221          10.71        944          52.85        
1800         13           212          10.6         942          53.71        
1800         14           251          11.84        951          53.22        
1800         15           214          10.26        939          52.61        
1800         16           205          9.455        941          54.48        
1800         17           213          10.53        970          55.64        
1800         18           201          10.06        970          55.33        
1800         19           199          9.886        964          54.78        
1800         20           182          8.692        958          53.4         
1800         21           439          21.07        2121         118.1        
1800         22           412          19.03        2021         113.7        
1800         23           427          20.41        2073         116.9        
1800         24           401          18.73        2078         118.9        
1800         25           129          5.211        557          29.96        
1900         0            128          5.427        589          30           
1900         1            410          19.75        2070         118.1        
1900         2            418          20.38        1990         112.3        
1900         3            405          19.38        2155         120.7        
1900         4            393          18.06        2057         115.8        
1900         5            193          9.233        1021         56.15        
1900         6            215          10.34        1014         58.03        
1900         7            199          10.02        985          55.81        
1900         8            239          11.58        955          52.83        
1900         9            201          9.886        964          53.85        
1900         10           228          10.64        989          55.47        
1900         11           214          10.55        956          52.32        
1900         12           207          9.772        978          55.85        
1900         13           194          9.297        989          57.65        
1900         14           187          8.875        985          55.79        
1900         15           205          9.442        1047         58.14        
1900         16           204          9.541        994          57.8         
1900         17           215          9.622        993          56.18        
1900         18           206          9.452        1005         55.65        
1900         19           187          8.707        951          53.21        
1900         20           200          9.614        967          53.57        
1900         21           402          18.21        2070         117.5        
1900         22           433          21.21        2040         115.8        
1900         23           410          20.27        2022         113.4        
1900         24           384          18.09        2084         116.2        
1900         25           102          4.462        567          29.78        
2000         0            100          4.591        611          31.84        
2000         1            384          17.81        2081         115          
2000         2            365          17.43        2081         118.1        
2000         3            420          19.67        2074         118.1        
2000         4            430          20.28        2021         112.5        
2000         5            204          9.725        985          53.86        
2000         6            211          9.993        1009         56.16        
2000         7            215          10.1         982          55.37        
2000         8            212          10.12        1000         55.94        
2000         9            209          9.672        1003         56.98        
2000         10           201          9.768        942          52.8         
2000         11           200          9.546        950          52.73        
2000         12           235          11.63        986          57.11        
2000         13           204          9.126        967          55.46        
2000         14           203          9.716        956          53.02        
2000         15           216          10.06        975          54.26        
2000         16           211          10.44        997          55.51        
2000         17           183          8.512        970          53.22        
2000         18           194          8.842        951          53.03        
2000         19           205          9.47         1036         57.84        
2000         20           186          8.687        936          53.26        
2000         21           415          19.7         2047         117.7        
2000         22           421          20.08        2076         116.1        
2000         23           405          18.87        2133         120          
2000         24           381          17.96        2090         116.6        
2000         25           121          5.899        548          28.8         
2100         0            120          4.782        566          29.67        
2100         1            400          19.43        2064         115.2        
2100         2            408          20.18        2116         116.8        
2100         3            406          18.6         2097         116.9        
2100         4            415          19.47        2059         114.7        
2100         5            194          9.319        1033         56.22        
2100         6            186          8.59         980          54.96        
2100         7            190          9.268        1008         56.86        
2100         8            173          7.787        947          54.98        
2100         9            229          11.23        932          52.39        
2100         10           191          8.52         976          54.44        
2100         11           201          9.906        955          52.03        
2100         12           210          10.42        1004         56.12        
2100         13           204          9.702        982          54.96        
2100         14           221          10.32        966          54.01        
2100         15           203          9.769        1014         56.81        
2100         16           205          9.888        952          53.52        
2100         17           210          9.756        986          54.57        
2100         18           198          9.344        1026         57.02        
2100         19           204          10.02        1014         55.7         
2100         20           212          10.2         958          53.73        
2100         21           414          20.84        2046         116.9        
2100         22           388          18.34        2073         117.6        
2100         23           399          18.2         2130         117.7        
2100         24           361          16.92        2027         111.8        
2100         25           111          4.537        616          30.7         
2200         0            119          5.006        608          32.34        
2200         1            386          17.78        2148         119.3        
2200         2            418          20.18        2069         114          
2200         3            402          19.49        2099         118.7        
2200         4            452          21.68        2132         120.2        
2200         5            185          8.514        1056         60.5         
2200         6            191          9.393        983          55.92        
2200         7            209          10.32        957          53.06        
2200         8            224          10.07        953          51.98        
2200         9            214          10.41        1004         56.87        
2200         10           209          9.687        984          56.11        
2200         11           214          9.495        979          56.92        
2200         12           194          9.419        1009         58.42        
2200         13           204          9.577        980          54.32        
2200         14           206          9.552        1030         56.04        
2200         15           220          10.39        984          54.34        
2200         16           222          10.12        989          58.37        
2200         17           218          10.19        1010         57.27        
2200         18           193          8.484        1017         56.78        
2200         19           206          9.955        1038         57.27        
2200         20           189          8.896        967          54.12        
2200         21           410          18.66        2122         119.5        
2200         22           380          17.77        2137         120.6        
2200         23           375          17.74        2097         118          
2200         24           396          19.62        2098         118.6        
2200         25           96           4.353        590          29.19        
2300         0            122          5.324        589          30.34        
2300         1            381          17.5         2171         121.1        
2300         2            397          18.72        1986         109.7        
2300         3            411          18.88        2010         113.9        
2300         4            404          19.57        2010         113.9        
2300         5            205          9.761        952          51.92        
2300         6            190          8.838        1032         58.48        
2300         7            191          9.081        1004         56.67        
2300         8            212          10.22        977          55.17        
2300         9            200          9.881        986          55.63        
2300         10           207          10.2         994          56.08        
2300         11           195          9.429        986          56.15        
2300         12           207          9.81         1043         59.26        
2300         13           183          8.47         985          55.64        
2300         14           231          10.94        970          54.03        
2300         15           168          8.379        984          55.33        
2300         16           188          9.214        1033         56.82        
2300         17           205          10.37        999          56.97        
2300         18           209          9.554        968          54.45        
2300         19           240          11.25        997          55.71        
2300         20           211          10.14        1043         55.85        
2300         21           424          20.02        2065         115.9        
2300         22           431          20.67        2099         119.2        
2300         23           375          17.92        2068         115.9        
2300         24           368          17.11        2146         119.1        
2300         25           117          4.704        584          29.67        
2400         0            112          4.673        561          28.02        
2400         1            332          15.71        1857         100.5        
2400         2            362          17.14        1810         96.68        
2400         3            338          14.95        1877         104.3        
2400         4            377          17.01        1905         102.1        
2400         5            184          7.245        909          49.15        
2400         6            181          7.988        904          50.8         
2400         7            185          7.982        913          48.33        
2400         8            188          7.888        925          51.02        
2400         9            172          7.821        869          45.33        
2400         10           183          8.212        879          47.19        
2400         11           185          8.275        879          47.65        
2400         12           155          7.682        827          44.11        
2400         13           196          8.905        868          46.83        
2400         14           198          8.89         887          48.18        
2400         15           174          7.992        878          49.26        
2400         16           177          8.079        898          48.46        
2400         17           190          8.926        812          44.37        
2400         18           199          8.626        889          49.52        
2400         19           176          8.054        916          48.71        
2400         20           178          8.248        958          50.92        
2400         21           381          17.65        1814         99.36        
2400         22           343          15.46        1818         97.59        
2400         23           361          16.7         1887         101.9        
2400         24           349          16.07        1875         101.8        
2400         25           97           4.208        528          26.61        
